Impact Averaged Raw Data
File Name: 10028_2_RF
Samp Rate (Hz): 3000
Missile Mass (kg): 8.5
Drop Height (mm): 50.0
# of Pre-impacts: 25
# of Impacts: 5
Material Thickness: 34.3
Temperature: 25.0
Humidity: 38.0
Cycle Rate (Hz): 0.27
Load Cell Coeff. (mv/lb): 10.680
Time (ms)	Accel (g)	Disp (mm)	Force (N)	Vel (cm/s)	Press (kPa)
    0.00	    0.00	   -1.66	    0.00	  100.09	    0.00
    0.33	    0.00	   -1.32	    0.00	   99.94	    0.00
    0.67	    0.00	   -0.99	    0.00	   99.93	    0.00
    1.00	    0.00	   -0.66	    0.00	  100.14	    0.00
    1.33	    0.00	   -0.32	    0.00	  100.50	    0.00
    1.67	    0.00	    0.01	    0.00	  100.83	    0.00
    2.00	    0.00	    0.35	    0.00	  100.88	    0.00
    2.33	    0.00	    0.68	    0.00	  100.66	    0.00
    2.67	    0.00	    1.02	    0.00	  100.43	    0.00
    3.00	    0.04	    1.35	    3.44	  100.40	    2.16
    3.33	    0.13	    1.69	   10.83	  100.56	    6.81
    3.67	    0.18	    2.02	   15.36	  100.86	    9.66
    4.00	    0.24	    2.36	   19.94	  101.25	   12.53
    4.33	    0.30	    2.70	   24.67	  101.71	   15.51
    4.67	    0.36	    3.04	   29.71	  102.17	   18.68
    5.00	    0.42	    3.38	   35.17	  102.62	   22.11
    5.33	    0.49	    3.72	   41.11	  103.16	   25.85
    5.67	    0.57	    4.07	   47.61	  103.81	   29.93
    6.00	    0.66	    4.42	   54.68	  104.42	   34.38
    6.33	    0.75	    4.76	   62.30	  104.97	   39.17
    6.67	    0.85	    5.11	   70.45	  105.58	   44.29
    7.00	    0.95	    5.47	   79.06	  106.21	   49.71
    7.33	    1.06	    5.82	   88.11	  106.71	   55.40
    7.67	    1.17	    6.18	   97.58	  107.05	   61.35
    8.00	    1.29	    6.54	  107.51	  107.44	   67.60
    8.33	    1.42	    6.90	  117.96	  107.94	   74.17
    8.67	    1.55	    7.26	  128.92	  108.32	   81.06
    9.00	    1.68	    7.62	  140.31	  108.38	   88.22
    9.33	    1.82	    7.98	  152.06	  108.16	   95.61
    9.67	    1.97	    8.34	  164.10	  107.84	  103.18
   10.00	    2.12	    8.70	  176.34	  107.42	  110.88
   10.33	    2.26	    9.05	  188.73	  106.78	  118.66
   10.67	    2.41	    9.41	  201.20	  105.88	  126.51
   11.00	    2.56	    9.76	  213.75	  104.86	  134.40
   11.33	    2.72	   10.11	  226.36	  103.86	  142.33
   11.67	    2.87	   10.45	  239.05	  102.80	  150.31
   12.00	    3.02	   10.79	  251.84	  101.65	  158.35
   12.33	    3.18	   11.13	  264.73	  100.52	  166.45
   12.67	    3.33	   11.46	  277.74	   99.58	  174.63
   13.00	    3.49	   11.79	  290.86	   98.80	  182.88
   13.33	    3.65	   12.12	  304.09	   97.99	  191.20
   13.67	    3.81	   12.45	  317.40	   96.97	  199.57
   14.00	    3.97	   12.77	  330.79	   95.78	  207.99
   14.33	    4.13	   13.09	  344.25	   94.64	  216.45
   14.67	    4.29	   13.40	  357.77	   93.72	  224.95
   15.00	    4.45	   13.71	  371.35	   92.79	  233.49
   15.33	    4.62	   14.02	  384.96	   91.47	  242.05
   15.67	    4.78	   14.32	  398.57	   89.65	  250.60
   16.00	    4.94	   14.62	  412.14	   87.69	  259.14
   16.33	    5.11	   14.91	  425.68	   86.08	  267.65
   16.67	    5.27	   15.19	  439.20	   85.01	  276.15
   17.00	    5.43	   15.47	  452.69	   84.31	  284.64
   17.33	    5.59	   15.75	  466.15	   83.72	  293.10
   17.67	    5.75	   16.03	  479.58	   82.93	  301.54
   18.00	    5.91	   16.31	  492.98	   81.70	  309.97
   18.33	    6.07	   16.58	  506.34	   79.97	  318.37
   18.67	    6.23	   16.84	  519.60	   77.93	  326.71
   19.00	    6.39	   17.09	  532.73	   75.86	  334.96
   19.33	    6.55	   17.34	  545.71	   74.03	  343.12
   19.67	    6.70	   17.59	  558.53	   72.57	  351.18
   20.00	    6.85	   17.83	  571.15	   71.36	  359.12
   20.33	    7.00	   18.06	  583.55	   70.06	  366.91
   20.67	    7.15	   18.30	  595.69	   68.40	  374.55
   21.00	    7.29	   18.52	  607.54	   66.36	  382.00
   21.33	    7.43	   18.74	  619.05	   64.07	  389.24
   21.67	    7.56	   18.95	  630.19	   61.60	  396.24
   22.00	    7.69	   19.15	  640.96	   58.97	  403.01
   22.33	    7.81	   19.34	  651.38	   56.17	  409.56
   22.67	    7.94	   19.52	  661.49	   53.29	  415.92
   23.00	    8.05	   19.70	  671.30	   50.47	  422.09
   23.33	    8.17	   19.86	  680.78	   47.73	  428.05
   23.67	    8.28	   20.01	  689.82	   45.08	  433.73
   24.00	    8.38	   20.16	  698.31	   42.81	  439.07
   24.33	    8.47	   20.30	  706.22	   41.18	  444.04
   24.67	    8.56	   20.43	  713.55	   40.04	  448.65
   25.00	    8.64	   20.57	  720.26	   38.90	  452.87
   25.33	    8.71	   20.69	  726.26	   37.34	  456.65
   25.67	    8.78	   20.81	  731.55	   35.20	  459.97
   26.00	    8.83	   20.93	  736.11	   32.66	  462.84
   26.33	    8.88	   21.03	  739.97	   29.90	  465.26
   26.67	    8.92	   21.13	  743.13	   26.97	  467.25
   27.00	    8.94	   21.21	  745.57	   23.77	  468.78
   27.33	    8.96	   21.29	  747.29	   20.28	  469.87
   27.67	    8.98	   21.35	  748.28	   16.90	  470.49
   28.00	    8.98	   21.40	  748.50	   14.41	  470.63
   28.33	    8.97	   21.44	  747.93	   12.99	  470.27
   28.67	    8.96	   21.49	  746.57	   11.76	  469.41
   29.00	    8.93	   21.52	  744.37	    9.63	  468.03
   29.33	    8.89	   21.55	  741.30	    6.37	  466.10
   29.67	    8.85	   21.56	  737.35	    2.50	  463.62
   30.00	    8.79	   21.57	  732.52	   -1.34	  460.58
   30.33	    8.72	   21.56	  726.84	   -4.77	  457.01
   30.67	    8.64	   21.53	  720.36	   -7.76	  452.93
   31.00	    8.56	   21.50	  713.14	  -10.52	  448.40
   31.33	    8.46	   21.46	  705.21	  -13.28	  443.41
   31.67	    8.36	   21.42	  696.57	  -16.16	  437.98
   32.00	    8.24	   21.36	  687.24	  -19.04	  432.11
   32.33	    8.12	   21.29	  677.25	  -21.29	  425.83
   32.67	    8.00	   21.21	  666.69	  -22.25	  419.19
   33.00	    7.87	   21.14	  655.60	  -22.24	  412.22
   33.33	    7.73	   21.07	  644.08	  -22.44	  404.97
   33.67	    7.58	   20.99	  632.21	  -23.59	  397.51
   34.00	    7.44	   20.91	  620.10	  -25.84	  389.89
   34.33	    7.29	   20.82	  607.73	  -29.11	  382.12
   34.67	    7.14	   20.71	  595.10	  -32.88	  374.17
   35.00	    6.98	   20.60	  582.21	  -36.06	  366.07
   35.33	    6.83	   20.47	  569.11	  -37.80	  357.84
   35.67	    6.67	   20.35	  555.88	  -38.47	  349.52
   36.00	    6.51	   20.22	  542.58	  -39.32	  341.16
   36.33	    6.35	   20.08	  529.26	  -41.17	  332.78
   36.67	    6.19	   19.94	  515.93	  -43.81	  324.39
   37.00	    6.03	   19.79	  502.58	  -46.57	  316.00
   37.33	    5.87	   19.63	  489.24	  -48.93	  307.62
   37.67	    5.71	   19.47	  475.93	  -50.79	  299.25
   38.00	    5.55	   19.29	  462.71	  -52.26	  290.94
   38.33	    5.39	   19.12	  449.61	  -53.46	  282.70
   38.67	    5.24	   18.94	  436.61	  -54.40	  274.52
   39.00	    5.08	   18.76	  423.69	  -55.23	  266.40
   39.33	    4.93	   18.57	  410.86	  -56.30	  258.33
   39.67	    4.78	   18.38	  398.15	  -57.79	  250.34
   40.00	    4.63	   18.18	  385.59	  -59.54	  242.44
   40.33	    4.48	   17.98	  373.20	  -61.29	  234.65
   40.67	    4.33	   17.78	  361.02	  -62.69	  227.00
   41.00	    4.19	   17.57	  349.09	  -63.35	  219.49
   41.33	    4.05	   17.35	  337.40	  -63.27	  212.14
   41.67	    3.91	   17.14	  325.93	  -63.01	  204.93
   42.00	    3.77	   16.93	  314.64	  -63.16	  197.83
   42.33	    3.64	   16.72	  303.53	  -63.70	  190.85
   42.67	    3.51	   16.51	  292.69	  -64.23	  184.03
   43.00	    3.39	   16.29	  282.18	  -64.70	  177.42
   43.33	    3.26	   16.08	  272.00	  -65.44	  171.02
   43.67	    3.14	   15.86	  262.10	  -66.66	  164.80
   44.00	    3.03	   15.63	  252.40	  -68.24	  158.70
   44.33	    2.91	   15.40	  242.84	  -69.85	  152.69
   44.67	    2.80	   15.17	  233.42	  -71.16	  146.76
   45.00	    2.69	   14.93	  224.14	  -72.11	  140.93
   45.33	    2.58	   14.69	  215.07	  -72.74	  135.23
   45.67	    2.47	   14.44	  206.28	  -73.13	  129.70
   46.00	    2.37	   14.20	  197.76	  -73.46	  124.34
   46.33	    2.27	   13.95	  189.44	  -74.08	  119.12
   46.67	    2.17	   13.71	  181.27	  -75.09	  113.98
   47.00	    2.08	   13.45	  173.22	  -76.31	  108.91
   47.33	    1.98	   13.20	  165.28	  -77.51	  103.92
   47.67	    1.89	   12.94	  157.49	  -78.64	   99.02
   48.00	    1.80	   12.67	  149.89	  -79.64	   94.24
   48.33	    1.71	   12.41	  142.49	  -80.21	   89.59
   48.67	    1.62	   12.14	  135.30	  -80.08	   85.07
   49.00	    1.54	   11.87	  128.28	  -79.55	   80.66
   49.33	    1.46	   11.61	  121.46	  -79.21	   76.37
   49.67	    1.38	   11.34	  114.84	  -79.28	   72.21
   50.00	    1.30	   11.08	  108.42	  -79.52	   68.17
   50.33	    1.23	   10.81	  102.16	  -79.49	   64.24
   50.67	    1.15	   10.55	   96.04	  -78.97	   60.39
   51.00	    1.08	   10.29	   90.03	  -78.13	   56.61
   51.33	    1.01	   10.03	   84.13	  -77.32	   52.90
   51.67	    0.94	    9.77	   78.35	  -76.84	   49.26
   52.00	    0.87	    9.52	   72.70	  -76.86	   45.71
   52.33	    0.81	    9.26	   67.23	  -77.32	   42.27
   52.67	    0.74	    9.00	   62.01	  -77.85	   38.99
   53.00	    0.68	    8.74	   57.03	  -78.09	   35.86
   53.33	    0.63	    8.48	   52.27	  -77.96	   32.86
   53.67	    0.57	    8.22	   47.73	  -77.77	   30.01
   54.00	    0.52	    7.96	   43.40	  -77.91	   27.29
   54.33	    0.47	    7.70	   39.23	  -78.41	   24.67
   54.67	    0.42	    7.44	   35.17	  -78.88	   22.11
   55.00	    0.37	    7.18	   31.23	  -78.94	   19.64
   55.33	    0.33	    6.91	   27.50	  -78.69	   17.29
   55.67	    0.29	    6.65	   24.02	  -78.53	   15.10
   56.00	    0.25	    6.39	   20.80	  -78.66	   13.08
   56.33	    0.21	    6.13	   17.83	  -78.94	   11.21
   56.67	    0.18	    5.86	   15.12	  -78.88	    9.51
   57.00	    0.15	    5.60	   12.65	  -78.20	    7.96
   57.33	    0.12	    5.34	   10.42	  -77.20	    6.55
   57.67	    0.10	    5.09	    8.40	  -76.39	    5.28
   58.00	    0.08	    4.83	    6.60	  -75.93	    4.15
   58.33	    0.06	    4.58	    5.00	  -75.68	    3.14
   58.67	    0.04	    4.33	    3.56	  -75.62	    2.24
   59.00	    0.03	    4.08	    2.30	  -75.78	    1.45
   59.33	    0.01	    3.82	    1.23	  -75.97	    0.77
   59.67	    0.00	    3.57	    0.36	  -75.93	    0.22
   60.00	   -0.00	    3.32	   -0.31	  -75.60	   -0.20
   60.33	   -0.01	    3.06	   -0.80	  -75.28	   -0.50
   60.67	   -0.01	    2.81	   -1.13	  -75.09	   -0.71
   61.00	   -0.02	    2.56	   -1.39	  -74.83	   -0.88
   61.33	   -0.02	    2.32	   -1.64	  -74.44	   -1.03
   61.67	   -0.02	    2.07	   -1.90	  -74.14	   -1.19
   62.00	   -0.03	    1.82	   -2.13	  -73.94	   -1.34
   62.33	   -0.03	    1.58	   -2.28	  -73.61	   -1.44
   62.67	   -0.03	    1.33	   -2.32	  -73.03	   -1.46
   63.00	   -0.03	    1.09	   -2.23	  -72.35	   -1.40
   63.33	   -0.02	    0.85	   -2.04	  -71.80	   -1.28
   63.67	   -0.02	    0.61	   -1.85	  -71.49	   -1.16
   64.00	   -0.02	    0.37	   -1.73	  -71.26	   -1.09
   64.33	   -0.02	    0.13	   -1.74	  -70.95	   -0.79
   64.67	   -0.02	   -0.10	   -1.80	  -70.53	   -0.51
   65.00	   -0.02	   -0.34	   -1.86	  -70.15	    0.00
   65.33	   -0.02	   -0.57	   -1.90	  -69.93	    0.00
   65.67	   -0.02	   -0.80	   -1.92	  -69.83	    0.00
   66.00	   -0.02	   -1.03	   -1.93	  -69.73	    0.00
